function mic = micS184;
% Calibration file for microphone/probe 'S184'.
% dBV = absolute mic calib = dB re 1V from B&K amp with 0 dB B&K gain
%      and an input signal of 124 dB SPL at 250 Hz (e.g. from pistonphone).
% CalData column 1 is frequency in kHz.
%         column 2 is gain calib, so dBSPL=dBre1V-dBV+column2.
%			    (to get the probe correction, subtract 124 dB.)
%         column 3 is phase correction, phase = phase from lockin + column 3.
%			    (note, no unwrapping has been done.)

mic = struct('number', 1758184, 'probename', '184s', ...
      'date', '21-Jul-2003 ', ...
      'preamp', 0, 'S0', 0, 'expect', 0, ...
      'dBV', -9.19172, ...
      'CalData', {[
        0.04, 125.551, -1.96988;
        0.0428709, 125.471, -1.96492;
        0.0459479, 125.439, -1.96618;
        0.0492458, 125.478, -1.97666;
        0.0527803, 125.301, -1.97699;
        0.0565685, 125.41, 0.0241981;
        0.0606287, 125.364, 0.0185866;
        0.0649802, 125.41, 0.018126;
        0.069644, 125.419, 0.0223184;
        0.0746426, 125.437, 0.0286033;
        0.08, 125.451, 0.0226563;
        0.0857419, 125.476, 0.0265884;
        0.0918959, 125.472, 0.0332645;
        0.0984916, 125.489, 0.0275751;
        0.105561, 125.478, 0.0286884;
        0.113137, 125.482, 0.0373924;
        0.121257, 125.474, 0.0288336;
        0.12996, 125.518, 0.0363019;
        0.139288, 125.498, 0.0394755;
        0.149285, 125.546, 0.0395053;
        0.16, 125.517, 0.0446018;
        0.171484, 125.523, 0.0426787;
        0.183792, 125.475, 0.0382465;
        0.196983, 125.524, 0.053469;
        0.211121, 125.504, 0.0585478;
        0.226274, 125.526, 0.0644173;
        0.242515, 125.528, 0.0670287;
        0.259921, 125.534, 0.0615602;
        0.278576, 125.583, 0.0618285;
        0.298571, 125.612, 0.0635782;
        0.32, 125.63, 0.0817799;
        0.342968, 125.647, 0.0832157;
        0.367583, 125.674, 0.0925573;
        0.393966, 125.711, 0.102044;
        0.422243, 125.751, 0.115203;
        0.452548, 125.822, 0.127851;
        0.485029, 125.809, 0.123026;
        0.519842, 125.853, 0.132458;
        0.557152, 125.773, 0.132918;
        0.597141, 125.935, 0.155015;
        0.64, 125.938, 0.15905;
        0.685935, 125.942, 0.180404;
        0.735167, 125.944, 0.177325;
        0.787932, 126.012, 0.20683;
        0.844485, 126.022, 0.211284;
        0.905097, 126.091, 0.237133;
        0.970059, 126.101, 0.25196;
        1.03968, 126.042, 0.260346;
        1.1143, 126.107, 0.277889;
        1.19428, 126.128, 0.287769;
        1.28, 126.143, 0.319994;
        1.37187, 126.013, 0.355306;
        1.47033, 126.611, 0.369511;
        1.57586, 126.69, 0.3847;
        1.68897, 126.799, 0.43293;
        1.81019, 127.007, 0.451686;
        1.94012, 127.203, -1.51474;
        2.07937, 127.486, -1.47741;
        2.22861, 127.692, -1.44008;
        2.38856, 128.076, -1.40269;
        2.56, 128.714, 0.632299;
        2.74374, 129.376, 0.67281;
        2.94067, 130.01, 0.698972;
        3.15173, 131.091, 0.755512;
        3.37794, 131.546, 0.80688;
        3.62039, 132.237, 0.836062;
        3.88023, 133.478, -1.1147;
        4.15873, 134.099, -1.06529;
        4.45722, 135.058, -1.03723;
        4.77713, 135.572, -1.004;
        5.12, 136.733, 1.02507;
        5.48748, 136.491, 1.05398;
        5.88134, 136.666, 1.04538;
        6.30346, 136.135, 1.10058;
        6.75588, 136.42, -0.802611;
        7.24077, 137.057, -0.690535;
        7.76047, 137.901, -0.592704;
        8.31746, 138.611, 1.47267;
        8.91444, 139.478, -0.446547;
        9.55426, 140.355, -0.374706;
        10.24, 140.882, -0.292257;
        10.975, 141.38, -0.210831;
        11.7627, 141.67, -0.119558;
        12.6069, 141.123, -0.0120107;
        13.5118, 139.704, 0.127072;
        14.4815, 140.122, 0.288906;
        15.5209, 141.399, -1.52621;
        16.6349, 143.303, 0.638322;
        17.8289, 145.476, -1.22815;
        19.1085, 147.017, 0.882795;
        20.48, 147.046, -1.02957;
        21.9499, 144.34, 1.1547;
        23.5253, 143.115, 1.50031;
        25.2138, 146.26, -0.159975;
        27.0235, 150.203, 0.0621425;
        28.9631, 152.308, 0.274818;
        31.0419, 152.832, -1.45429;
        33.2699, 154.882, -1.05583;
        35.6578, 162.043, 1.17807;
        38.217, 166.623, 1.2084;
        40.96, 166.623, 1.2084;
       ]});