function mic = mic955s5;
% Calibration file for microphone/probe '955s5'.
% dBV = absolute mic calib = dB re 1V from B&K amp with 0 dB B&K gain
%      and an input signal of 124 dB SPL at 250 Hz (e.g. from pistonphone).
% CalData column 1 is frequency in kHz.
%         column 2 is gain calib, so dBSPL=dBre1V-dBV+column2.
%			    (to get the probe correction, subtract 124 dB.)
%         column 3 is phase correction, phase = phase from lockin + column 3.
%			    (note, no unwrapping has been done.)

mic = struct('number', 2381955, 'probename', '955s5', ...
      'date', '27-Feb-2004', ...
      'preamp', 0, 'S0', 0, 'expect', 0, ...
      'dBV', -7.09155, ...
      'CalData', {[
        0.04, 125.219, 0.0161225;
        0.0428709, 125.121, 0.021637;
        0.0459479, 125.112, 0.0107933;
        0.0492458, 125.176, -1.98083;
        0.0527803, 125.085, -1.97947;
        0.0565685, 125.018, 0.016453;
        0.0606287, 125.092, 0.0277639;
        0.0649802, 125.062, 0.0172521;
        0.069644, 125.05, 0.0253119;
        0.0746426, 125.069, 0.0253361;
        0.08, 125.069, 0.0177473;
        0.0857419, 125.042, 0.0300394;
        0.0918959, 125.048, 0.0223849;
        0.0984916, 125.02, 0.0377708;
        0.105561, 125.061, 0.023594;
        0.113137, 125.018, 0.038917;
        0.121257, 125.057, 0.0294762;
        0.12996, 125.03, 0.04221;
        0.139288, 125.023, 0.0486574;
        0.149285, 125.045, 0.0441529;
        0.16, 125.021, 0.0524758;
        0.171484, 125.011, 0.0500618;
        0.183792, 125.025, 0.0538492;
        0.196983, 125.041, 0.0514926;
        0.211121, 125.023, 0.0593327;
        0.226274, 124.988, 0.0628468;
        0.242515, 124.981, 0.0722002;
        0.259921, 124.948, 0.0742668;
        0.278576, 125.005, 0.0717946;
        0.298571, 125.078, 0.0848938;
        0.32, 125.112, 0.0876676;
        0.342968, 125.146, 0.0891373;
        0.367583, 125.18, 0.0885126;
        0.393966, 125.214, 0.0938376;
        0.422243, 125.248, 0.114023;
        0.452548, 125.282, 0.108438;
        0.485029, 125.316, 0.244603;
        0.519842, 125.35, 0.279626;
        0.557152, 125.384, 0.0266618;
        0.597141, 125.417, 0.136908;
        0.64, 125.451, 0.17273;
        0.685935, 125.485, 0.191279;
        0.735167, 125.519, 0.207646;
        0.787932, 125.532, 0.214874;
        0.844485, 125.589, 0.24048;
        0.905097, 125.655, 0.26807;
        0.970059, 125.74, 0.269239;
        1.03968, 125.642, 0.292036;
        1.1143, 125.879, 0.306419;
        1.19428, 126.022, 0.338051;
        1.28, 126.122, 0.361005;
        1.37187, 126.433, 0.38877;
        1.47033, 126.576, 0.406643;
        1.57586, 127.601, 0.426031;
        1.68897, 128.086, 0.455558;
        1.81019, 128.57, -1.50922;
        1.94012, 129.054, -1.47619;
        2.07937, 129.539, -1.45658;
        2.22861, 130.023, -1.41554;
        2.38856, 130.508, -1.36425;
        2.56, 130.992, 0.670806;
        2.74374, 131.476, 0.712615;
        2.94067, 131.961, 0.773249;
        3.15173, 132.445, 0.760647;
        3.37794, 132.93, 0.79591;
        3.62039, 133.622, 0.848247;
        3.88023, 134.349, -1.08511;
        4.15873, 134.848, -1.05412;
        4.45722, 135.272, -1.00094;
        4.77713, 135.448, -0.977445;
        5.12, 134.896, 1.08262;
        5.48748, 134.623, 1.15936;
        5.88134, 134.114, 1.25668;
        6.30346, 136.766, -0.705072;
        6.75588, 137.507, -0.681221;
        7.24077, 138.785, -0.622553;
        7.76047, 139.482, -0.57001;
        8.31746, 140.394, 1.49897;
        8.91444, 140.875, -0.43595;
        9.55426, 141.77, -0.364122;
        10.24, 142.202, -0.293262;
        10.975, 142.34, -0.213495;
        11.7627, 142.461, -0.12593;
        12.6069, 142.146, -0.019334;
        13.5118, 141.736, 0.115658;
        14.4815, 142.515, 0.278264;
        15.5209, 143.202, 0.443032;
        16.6349, 144.869, -1.40992;
        17.8289, 146.339, 0.725385;
        19.1085, 146.854, -1.16627;
        20.48, 146.055, 0.959018;
        21.9499, 143.165, -0.846285;
        23.5253, 141.801, -0.515194;
        25.2138, 143.874, 1.82053;
        27.0235, 145.393, 0.0840163;
        28.9631, 145.936, 0.407773;
        31.0419, 148.943, 0.802604;
        33.2699, 154.468, 1.18482;
        35.6578, 161.639, -0.56524;
        38.217, 164.896, -0.429657;
        40.96, 164.896, -0.429657;
       ]});